ms,pos,steps,strain,g
0,0.000,200,1435.00,10.011
2,0.000,200,1494.00,10.283
31,0.000,200,751.00,6.853
124,0.000,200,-7788.00,-32.572
216,0.000,200,-24363.00,-109.098
307,0.000,200,-40863.00,-185.278
399,0.000,200,-56194.00,-256.060
490,0.000,200,-69369.00,-316.889
582,0.000,200,-79558.00,-363.931
673,0.000,200,-91331.00,-418.287
766,0.000,200,-102534.00,-470.010
857,0.000,200,-113660.00,-521.379
949,0.000,200,-124832.00,-572.960
1041,0.000,200,-136611.00,-627.343
1132,0.000,200,-148627.00,-682.820
1224,0.000,200,-159539.00,-733.201
1315,0.000,200,-171208.00,-787.076
1408,0.000,200,-181808.00,-836.016
1499,0.000,200,-192205.00,-884.018
1591,0.000,200,-202400.00,-931.088
1682,0.000,200,-212517.00,-977.798
1774,0.000,200,-222415.00,-1023.497
1865,0.000,200,-230894.00,-1062.644
1958,0.000,200,-240141.00,-1105.337
2050,0.000,200,-248456.00,-1143.727
2141,0.000,200,-256686.00,-1181.725
2233,0.000,200,-265136.00,-1220.738
2324,0.000,200,-273727.00,-1260.403
2416,0.000,200,-282508.00,-1300.944
2507,0.000,200,-289797.00,-1334.597
2600,0.000,200,-297259.00,-1369.049
2691,0.000,200,-302628.00,-1393.838
2783,0.000,200,-307347.00,-1415.625
2874,0.000,200,-313722.00,-1445.058
2966,0.000,200,-321756.00,-1482.151
3057,0.000,200,-330084.00,-1520.601
3149,0.000,200,-336385.00,-1549.692
3242,0.000,200,-342769.00,-1579.167
3333,0.000,200,-347733.00,-1602.086
3425,0.000,200,-352772.00,-1625.351
3516,0.000,200,-357711.00,-1648.154
3608,0.000,200,-362798.00,-1671.640
3699,0.000,200,-368203.00,-1696.595
3792,0.000,200,-372024.00,-1714.236
3883,0.000,200,-376057.00,-1732.857
3975,0.000,200,-378964.00,-1746.278
4066,0.000,200,-381834.00,-1759.529
4158,0.000,200,-384389.00,-1771.325
4249,0.000,200,-387161.00,-1784.123
4341,0.000,200,-389524.00,-1795.033
4434,0.000,200,-390027.00,-1797.356
4525,0.000,200,-390141.00,-1797.882
4617,0.000,200,-388977.00,-1792.508
4708,0.000,200,-387207.00,-1784.336
4800,0.000,200,-384143.00,-1770.189
4891,0.000,200,-378352.00,-1743.453
4983,0.000,200,-368942.00,-1700.007
5075,0.000,200,-356594.00,-1642.997
5167,0.000,200,-341881.00,-1575.067
5258,0.000,200,-324702.00,-1495.752
5350,0.000,200,-306812.00,-1413.155
5442,0.000,200,-291582.00,-1342.838
5533,0.000,200,-278519.00,-1282.527
5625,0.000,200,-266476.00,-1226.925
5717,0.000,200,-254960.00,-1173.756
5809,0.000,200,-243354.00,-1120.171
5900,0.000,200,-232170.00,-1068.535
5992,0.000,200,-220765.00,-1015.879
6083,0.000,200,-209552.00,-964.109
6175,0.000,200,-199200.00,-916.314
6267,0.000,200,-188927.00,-868.884
6359,0.000,200,-178786.00,-822.063
6450,0.000,200,-168268.00,-773.502
6542,0.000,200,-157876.00,-725.523
6633,0.000,200,-147254.00,-676.481
6725,0.000,200,-136841.00,-628.405
6817,0.000,200,-127282.00,-584.271
6909,0.000,200,-117921.00,-541.052
7001,0.000,200,-108846.00,-499.153
7092,0.000,200,-99274.00,-454.959
7184,0.000,200,-90017.00,-412.220
7275,0.000,200,-80425.00,-367.934
7367,0.000,200,-71049.00,-324.645
7458,0.000,200,-62414.00,-284.778
7551,0.000,200,-54112.00,-246.448
7642,0.000,200,-46204.00,-209.937
7734,0.000,200,-37908.00,-171.635
7826,0.000,200,-30111.00,-135.636
7917,0.000,200,-22132.00,-98.797
8009,0.000,200,-14089.00,-61.663
8100,0.000,200,-6514.00,-26.690
8193,0.000,200,625.00,6.271
8284,0.000,200,7669.00,38.793
8376,0.000,200,15223.00,73.669
8467,0.000,200,22333.00,106.496
8559,0.000,200,29627.00,140.172
8650,0.000,200,36667.00,172.676
8743,0.000,200,42764.00,200.825
8834,0.000,200,47783.00,223.998
8926,0.000,200,51799.00,242.540
9018,0.000,200,55164.00,258.076
9109,0.000,200,58335.00,272.716
9201,0.000,200,62312.00,291.078
9292,0.000,200,64856.00,302.823
9385,0.000,200,63198.00,295.168
9476,0.000,200,63754.00,297.735
9568,0.000,200,67570.00,315.354
9659,0.000,200,69080.00,322.325
9751,0.000,200,69431.00,323.946
9842,0.000,200,69492.00,324.228
9934,0.000,200,69524.00,324.375
10026,0.000,200,69562.00,324.551
10118,0.000,200,69603.00,324.740
10210,0.000,200,69563.00,324.555
10301,0.000,200,69572.00,324.597
10393,0.000,200,69586.00,324.661
10484,0.000,200,69584.00,324.652
10577,0.000,200,69588.00,324.671
10668,0.000,200,69564.00,324.560
10760,0.000,200,69527.00,324.389
10851,0.000,200,69522.00,324.366
10943,0.000,200,69511.00,324.315
11034,0.000,200,69498.00,324.255
11126,0.000,200,69515.00,324.334
11219,0.000,200,69463.00,324.094
11310,0.000,200,69468.00,324.117
11402,0.000,200,69574.00,324.606
11493,0.000,200,69533.00,324.417
11585,0.000,200,69473.00,324.140
11676,0.000,200,69507.00,324.297
11768,0.000,200,69595.00,324.703
11860,0.000,200,69604.00,324.745
11952,0.000,200,69542.00,324.458
12043,0.000,200,69532.00,324.412
12135,0.000,200,69552.00,324.505
12227,0.000,200,69573.00,324.601
12318,0.000,200,69622.00,324.828
12411,0.000,200,69595.00,324.703
12502,0.000,200,69535.00,324.426
12594,0.000,200,69505.00,324.288
12685,0.000,200,69525.00,324.380