ms,pos,steps,strain,g
0,0.000,200,-1129.00,-1.827
93,0.000,200,-3517.00,-12.852
184,0.000,200,-6154.00,-25.027
277,0.000,200,-8786.00,-37.179
368,0.000,200,-11399.00,-49.243
460,0.000,200,-14006.00,-61.280
552,0.000,200,-16406.00,-72.361
643,0.000,200,-18828.00,-83.543
735,0.000,200,-21192.00,-94.457
826,0.000,200,-23398.00,-104.642
919,0.000,200,-25624.00,-114.920
1010,0.000,200,-27966.00,-125.733
1102,0.000,200,-30260.00,-136.324
1193,0.000,200,-31635.00,-142.672
1285,0.000,200,-32908.00,-148.550
1377,0.000,200,-34872.00,-157.617
1468,0.000,200,-37097.00,-167.890
1561,0.000,200,-39323.00,-178.168
1652,0.000,200,-41698.00,-189.133
1744,0.000,200,-44219.00,-200.772
1835,0.000,200,-46521.00,-211.400
1927,0.000,200,-48780.00,-221.830
2018,0.000,200,-50660.00,-230.510
2111,0.000,200,-52581.00,-239.379
2203,0.000,200,-54905.00,-250.109
2294,0.000,200,-57480.00,-261.998
2386,0.000,200,-60106.00,-274.122
2477,0.000,200,-62595.00,-285.614
2569,0.000,200,-65111.00,-297.230
2660,0.000,200,-67567.00,-308.569
2753,0.000,200,-70100.00,-320.264
2844,0.000,200,-72625.00,-331.922
2936,0.000,200,-75178.00,-343.709
3028,0.000,200,-77780.00,-355.722
3119,0.000,200,-80294.00,-367.329
3211,0.000,200,-82904.00,-379.379
3302,0.000,200,-85429.00,-391.037
3395,0.000,200,-87899.00,-402.441
3486,0.000,200,-90274.00,-413.406
3578,0.000,200,-92832.00,-425.217
3669,0.000,200,-95567.00,-437.844
3761,0.000,200,-98075.00,-449.423
3853,0.000,200,-100560.00,-460.897
3944,0.000,200,-102965.00,-472.000
4037,0.000,200,-105244.00,-482.522
4128,0.000,200,-107606.00,-493.428
4220,0.000,200,-110059.00,-504.753
4311,0.000,200,-112599.00,-516.480
4403,0.000,200,-114927.00,-527.229
4494,0.000,200,-117302.00,-538.194
4587,0.000,200,-119558.00,-548.610
4679,0.000,200,-121731.00,-558.642
4770,0.000,200,-123847.00,-568.412
4862,0.000,200,-126046.00,-578.565
4953,0.000,200,-128065.00,-587.886
5045,0.000,200,-128098.00,-588.039
5136,0.000,200,-125118.00,-574.280
5229,0.000,200,-121138.00,-555.905
5320,0.000,200,-117647.00,-539.787
5412,0.000,200,-114423.00,-524.902
5503,0.000,200,-111352.00,-510.723
5595,0.000,200,-108270.00,-496.493
5687,0.000,200,-105286.00,-482.716
5778,0.000,200,-102241.00,-468.658
5871,0.000,200,-99257.00,-454.881
5962,0.000,200,-96460.00,-441.967
6054,0.000,200,-93793.00,-429.654
6145,0.000,200,-91187.00,-417.622
6237,0.000,200,-88354.00,-404.542
6328,0.000,200,-85689.00,-392.238
6421,0.000,200,-82932.00,-379.509
6512,0.000,200,-80083.00,-366.355
6604,0.000,200,-77459.00,-354.240
6696,0.000,200,-74951.00,-342.661
6787,0.000,200,-72411.00,-330.934
6879,0.000,200,-69638.00,-318.131
6970,0.000,200,-67043.00,-306.150
7063,0.000,200,-64394.00,-293.919
7154,0.000,200,-61690.00,-281.435
7246,0.000,200,-59147.00,-269.694
7337,0.000,200,-56723.00,-258.503
7429,0.000,200,-54220.00,-246.946
7520,0.000,200,-51663.00,-235.141
7612,0.000,200,-49225.00,-223.885
7705,0.000,200,-46715.00,-212.296
7796,0.000,200,-44163.00,-200.514
7888,0.000,200,-41658.00,-188.948
7979,0.000,200,-39167.00,-177.447
8071,0.000,200,-36789.00,-166.468
8162,0.000,200,-34335.00,-155.138
8255,0.000,200,-31949.00,-144.122
8346,0.000,200,-29370.00,-132.215
8438,0.000,200,-26803.00,-120.363
8530,0.000,200,-24382.00,-109.185
8621,0.000,200,-21976.00,-98.077
8713,0.000,200,-19558.00,-86.913
8804,0.000,200,-16962.00,-74.928
8897,0.000,200,-14483.00,-63.482
8988,0.000,200,-11894.00,-51.529
9080,0.000,200,-9353.00,-39.797
9171,0.000,200,-7265.00,-30.157
9263,0.000,200,-5894.00,-23.827
9354,0.000,200,-4776.00,-18.665
9446,0.000,200,-2934.00,-10.161
9538,0.000,200,-1017.00,-1.310
9630,0.000,200,825.00,7.194
9721,0.000,200,2138.00,13.256
9813,0.000,200,2960.00,17.052
9905,0.000,200,4219.00,22.864
9996,0.000,200,5630.00,29.379
10088,0.000,200,6503.00,33.410
10180,0.000,200,6573.00,33.733
10272,0.000,200,6498.00,33.386
10363,0.000,200,6406.00,32.962
10455,0.000,200,6330.00,32.611
10546,0.000,200,6311.00,32.523
10638,0.000,200,6285.00,32.403
10731,0.000,200,6201.00,32.015
10822,0.000,200,6115.00,31.618
10914,0.000,200,6080.00,31.457
11005,0.000,200,6104.00,31.567
11097,0.000,200,6069.00,31.406
11188,0.000,200,6039.00,31.267
11280,0.000,200,5971.00,30.953
11372,0.000,200,5986.00,31.023
11464,0.000,200,5960.00,30.903
11556,0.000,200,5916.00,30.699
11647,0.000,200,5926.00,30.746
11739,0.000,200,5905.00,30.649
11830,0.000,200,5844.00,30.367
11922,0.000,200,5863.00,30.455
12014,0.000,200,5914.00,30.690
12106,0.000,200,5834.00,30.321
12197,0.000,200,5785.00,30.095
12289,0.000,200,5787.00,30.104
12380,0.000,200,5798.00,30.155
12472,0.000,200,5862.00,30.450
12565,0.000,200,5834.00,30.321
12656,0.000,200,5780.00,30.071
12748,0.000,200,5759.00,29.974
12839,0.000,200,5852.00,30.404
12931,0.000,200,5841.00,30.353
13022,0.000,200,5809.00,30.205
13114,0.000,200,5754.00,29.951
13206,0.000,200,5790.00,30.118
13298,0.000,200,5786.00,30.099
13390,0.000,200,5785.00,30.095
13481,0.000,200,5766.00,30.007
13573,0.000,200,5802.00,30.173
13664,0.000,200,5758.00,29.970
13756,0.000,200,5766.00,30.007
13848,0.000,200,5753.00,29.947
13940,0.000,200,5726.00,29.822
14031,0.000,200,5757.00,29.965
14123,0.000,200,5742.00,29.896
14215,0.000,200,5731.00,29.845
14306,0.000,200,5716.00,29.776