ms,pos,steps,strain,g
0,0.000,200,-19.00,3.298
2,0.000,200,-39.00,3.205
10,0.000,200,-73.00,3.048
101,0.000,200,-713.00,0.093
193,0.000,200,-2610.00,-8.665
284,0.000,200,-5074.00,-20.041
376,0.000,200,-7270.00,-30.180
468,0.000,200,-9434.00,-40.171
560,0.000,200,-11418.00,-49.331
651,0.000,200,-13275.00,-57.905
743,0.000,200,-15099.00,-66.326
834,0.000,200,-16994.00,-75.075
926,0.000,200,-18931.00,-84.018
1017,0.000,200,-20577.00,-91.618
1110,0.000,200,-22198.00,-99.102
1201,0.000,200,-23700.00,-106.037
1293,0.000,200,-25162.00,-112.787
1384,0.000,200,-26597.00,-119.412
1476,0.000,200,-28185.00,-126.744
1567,0.000,200,-29791.00,-134.159
1659,0.000,200,-31120.00,-140.295
1751,0.000,200,-32559.00,-146.938
1843,0.000,200,-33873.00,-153.005
1934,0.000,200,-35203.00,-159.146
2026,0.000,200,-36551.00,-165.369
2117,0.000,200,-37994.00,-172.032
2209,0.000,200,-39424.00,-178.634
2301,0.000,200,-40624.00,-184.174
2393,0.000,200,-41840.00,-189.788
2484,0.000,200,-42716.00,-193.833
2575,0.000,200,-43229.00,-196.201
2667,0.000,200,-43887.00,-199.239
2758,0.000,200,-44967.00,-204.226
2850,0.000,200,-46116.00,-209.531
2942,0.000,200,-46772.00,-212.559
3034,0.000,200,-47689.00,-216.793
3125,0.000,200,-49121.00,-223.405
3217,0.000,200,-50640.00,-230.418
3308,0.000,200,-52208.00,-237.657
3400,0.000,200,-53785.00,-244.938
3491,0.000,200,-55393.00,-252.362
3584,0.000,200,-56889.00,-259.269
3675,0.000,200,-58415.00,-266.315
3767,0.000,200,-59775.00,-272.594
3858,0.000,200,-61160.00,-278.988
3950,0.000,200,-62602.00,-285.646
4041,0.000,200,-64045.00,-292.308
4133,0.000,200,-65667.00,-299.797
4225,0.000,200,-67019.00,-306.039
4317,0.000,200,-68531.00,-313.020
4408,0.000,200,-69849.00,-319.105
4500,0.000,200,-71178.00,-325.241
4591,0.000,200,-72550.00,-331.575
4683,0.000,200,-73978.00,-338.168
4774,0.000,200,-75468.00,-345.048
4867,0.000,200,-76694.00,-350.708
4958,0.000,200,-77899.00,-356.272
5050,0.000,200,-78711.00,-360.021
5141,0.000,200,-77962.00,-356.562
5233,0.000,200,-74944.00,-342.628
5324,0.000,200,-71219.00,-325.430
5417,0.000,200,-67681.00,-309.095
5508,0.000,200,-64526.00,-294.529
5600,0.000,200,-61387.00,-280.036
5691,0.000,200,-58642.00,-267.363
5783,0.000,200,-56110.00,-255.673
5874,0.000,200,-53503.00,-243.636
5966,0.000,200,-51010.00,-232.126
6058,0.000,200,-48540.00,-220.722
6150,0.000,200,-46121.00,-209.554
6241,0.000,200,-43662.00,-198.201
6333,0.000,200,-41472.00,-188.089
6424,0.000,200,-39415.00,-178.592
6516,0.000,200,-37389.00,-169.238
6607,0.000,200,-35416.00,-160.129
6700,0.000,200,-33531.00,-151.426
6791,0.000,200,-31627.00,-142.635
6882,0.000,200,-29736.00,-133.905
6974,0.000,200,-28104.00,-126.370
7065,0.000,200,-26554.00,-119.214
7157,0.000,200,-24980.00,-111.946
7248,0.000,200,-23444.00,-104.855
7341,0.000,200,-21913.00,-97.786
7432,0.000,200,-20441.00,-90.990
7524,0.000,200,-18929.00,-84.009
7615,0.000,200,-17559.00,-77.684
7707,0.000,200,-16328.00,-72.000
7798,0.000,200,-15118.00,-66.414
7891,0.000,200,-13951.00,-61.026
7982,0.000,200,-12760.00,-55.527
8074,0.000,200,-11733.00,-50.785
8165,0.000,200,-10930.00,-47.078
8257,0.000,200,-10864.00,-46.773
8348,0.000,200,-10383.00,-44.553
8440,0.000,200,-9312.00,-39.608
8532,0.000,200,-8302.00,-34.945
8624,0.000,200,-7880.00,-32.996
8715,0.000,200,-7284.00,-30.245
8807,0.000,200,-6141.00,-24.967
8898,0.000,200,-5069.00,-20.018
8990,0.000,200,-4079.00,-15.447
9081,0.000,200,-3227.00,-11.514
9174,0.000,200,-2291.00,-7.192
9265,0.000,200,-1298.00,-2.607
9357,0.000,200,-309.00,1.959
9448,0.000,200,788.00,7.024
9539,0.000,200,1693.00,11.202
9631,0.000,200,2546.00,15.140
9723,0.000,200,3384.00,19.009
9815,0.000,200,4252.00,23.017
9906,0.000,200,5106.00,26.960
9998,0.000,200,6021.00,31.184
10089,0.000,200,6930.00,35.381
10181,0.000,200,7306.00,37.117
10272,0.000,200,7049.00,35.930
10365,0.000,200,6689.00,34.268
10456,0.000,200,6483.00,33.317
10548,0.000,200,6317.00,32.551
10639,0.000,200,6093.00,31.517
10731,0.000,200,5969.00,30.944
10822,0.000,200,5853.00,30.408
10914,0.000,200,5651.00,29.476
11006,0.000,200,5615.00,29.310
11098,0.000,200,5525.00,28.894
11189,0.000,200,5377.00,28.211
11281,0.000,200,5292.00,27.818
11372,0.000,200,5241.00,27.583
11464,0.000,200,5212.00,27.449
11555,0.000,200,5118.00,27.015
11648,0.000,200,5062.00,26.756
11739,0.000,200,4984.00,26.396
11831,0.000,200,4993.00,26.438
11922,0.000,200,4918.00,26.092
12014,0.000,200,4867.00,25.856
12105,0.000,200,4802.00,25.556
12197,0.000,200,4702.00,25.094
12289,0.000,200,4734.00,25.242
12381,0.000,200,4726.00,25.205
12472,0.000,200,4658.00,24.891
12564,0.000,200,4684.00,25.011
12655,0.000,200,4679.00,24.988
12747,0.000,200,4571.00,24.490
12838,0.000,200,4580.00,24.531
12931,0.000,200,4563.00,24.453
13022,0.000,200,4512.00,24.217