ms,pos,steps,strain,g
0,0.000,200,66.00,3.690
2,0.000,200,60.00,3.662
50,0.000,200,38.00,3.561
142,0.000,200,-184.00,2.536
233,0.000,200,-824.00,-0.419
325,0.000,200,-2379.00,-7.598
416,0.000,200,-5078.00,-20.060
509,0.000,200,-8930.00,-37.844
600,0.000,200,-13502.00,-58.953
692,0.000,200,-18795.00,-83.390
783,0.000,200,-24788.00,-111.060
875,0.000,200,-30733.00,-138.508
966,0.000,200,-36508.00,-165.171
1059,0.000,200,-41788.00,-189.548
1150,0.000,200,-46346.00,-210.592
1242,0.000,200,-51342.00,-233.659
1333,0.000,200,-57325.00,-261.282
1425,0.000,200,-63265.00,-288.707
1516,0.000,200,-66749.00,-304.792
1608,0.000,200,-68278.00,-311.852
1700,0.000,200,-70392.00,-321.612
1792,0.000,200,-75649.00,-345.883
1883,0.000,200,-81988.00,-375.150
1975,0.000,200,-88949.00,-407.289
2066,0.000,200,-96579.00,-442.516
2158,0.000,200,-103912.00,-476.373
2249,0.000,200,-111222.00,-510.123
2342,0.000,200,-118548.00,-543.947
2433,0.000,200,-125700.00,-576.967
2525,0.000,200,-132942.00,-610.403
2616,0.000,200,-140490.00,-645.252
2708,0.000,200,-148665.00,-682.996
2799,0.000,200,-156359.00,-718.519
2891,0.000,200,-163870.00,-753.197
2983,0.000,200,-171454.00,-788.212
3075,0.000,200,-178851.00,-822.363
3166,0.000,200,-186482.00,-857.596
3258,0.000,200,-194463.00,-894.443
3349,0.000,200,-203022.00,-933.960
3441,0.000,200,-211164.00,-971.551
3532,0.000,200,-219160.00,-1008.469
3625,0.000,200,-227170.00,-1045.451
3716,0.000,200,-235030.00,-1081.740
3808,0.000,200,-242905.00,-1118.098
3899,0.000,200,-251068.00,-1155.787
3991,0.000,200,-259619.00,-1195.266
4082,0.000,200,-267702.00,-1232.585
4175,0.000,200,-275691.00,-1269.470
4266,0.000,200,-283605.00,-1306.009
4358,0.000,200,-291320.00,-1341.629
4449,0.000,200,-299022.00,-1377.189
4541,0.000,200,-306929.00,-1413.695
4632,0.000,200,-315127.00,-1451.545
4724,0.000,200,-322791.00,-1486.929
4816,0.000,200,-330270.00,-1521.460
4908,0.000,200,-337644.00,-1555.505
4999,0.000,200,-344338.00,-1586.411
5091,0.000,200,-348705.00,-1606.573
5182,0.000,200,-347082.00,-1599.080
5274,0.000,200,-339937.00,-1566.092
5365,0.000,200,-330784.00,-1523.833
5458,0.000,200,-321346.00,-1480.258
5549,0.000,200,-312054.00,-1437.357
5640,0.000,200,-302800.00,-1394.632
5732,0.000,200,-293441.00,-1351.421
5823,0.000,200,-284396.00,-1309.661
5915,0.000,200,-275677.00,-1269.406
6006,0.000,200,-267121.00,-1229.903
6099,0.000,200,-258486.00,-1190.035
6190,0.000,200,-249884.00,-1150.320
6282,0.000,200,-241133.00,-1109.917
6373,0.000,200,-232113.00,-1068.272
6465,0.000,200,-223507.00,-1028.539
6556,0.000,200,-215095.00,-989.701
6649,0.000,200,-206882.00,-951.782
6740,0.000,200,-198465.00,-912.921
6832,0.000,200,-190157.00,-874.563
6923,0.000,200,-181709.00,-835.559
7015,0.000,200,-172983.00,-795.271
7106,0.000,200,-164698.00,-757.020
7198,0.000,200,-156885.00,-720.947
7290,0.000,200,-149344.00,-686.131
7382,0.000,200,-141518.00,-649.998
7473,0.000,200,-133743.00,-614.101
7565,0.000,200,-125800.00,-577.429
7656,0.000,200,-117617.00,-539.648
7748,0.000,200,-110030.00,-504.619
7839,0.000,200,-102798.00,-471.229
7932,0.000,200,-95870.00,-439.243
8023,0.000,200,-88882.00,-406.980
8115,0.000,200,-82103.00,-375.681
8206,0.000,200,-75213.00,-343.870
8298,0.000,200,-68270.00,-311.815
8389,0.000,200,-61709.00,-281.523
8481,0.000,200,-55492.00,-252.819
8573,0.000,200,-49411.00,-224.743
8664,0.000,200,-43329.00,-196.663
8756,0.000,200,-37470.00,-169.612
8847,0.000,200,-31534.00,-142.206
8939,0.000,200,-26224.00,-117.690
9030,0.000,200,-22715.00,-101.489
9123,0.000,200,-19145.00,-85.006
9214,0.000,200,-14517.00,-63.639
9306,0.000,200,-9836.00,-42.027
9397,0.000,200,-6949.00,-28.698
9489,0.000,200,-7095.00,-29.372
9580,0.000,200,-5895.00,-23.832
9672,0.000,200,-3040.00,-10.650
9764,0.000,200,-1131.00,-1.836
9856,0.000,200,-477.00,1.183
9947,0.000,200,-255.00,2.208
10039,0.000,200,-147.00,2.707
10130,0.000,200,-92.00,2.961
10222,0.000,200,-132.00,2.776
10313,0.000,200,-134.00,2.767
10406,0.000,200,-102.00,2.914
10497,0.000,200,-128.00,2.794
10589,0.000,200,-144.00,2.721
10680,0.000,200,-178.00,2.564
10772,0.000,200,-175.00,2.577
10863,0.000,200,-116.00,2.850
10955,0.000,200,-179.00,2.559
11047,0.000,200,-194.00,2.490
11139,0.000,200,-171.00,2.596
11230,0.000,200,-153.00,2.679
11322,0.000,200,-204.00,2.444
11413,0.000,200,-226.00,2.342
11505,0.000,200,-260.00,2.185
11596,0.000,200,-274.00,2.120
11688,0.000,200,-275.00,2.116
11780,0.000,200,-226.00,2.342
11871,0.000,200,-269.00,2.143
11963,0.000,200,-237.00,2.291
12054,0.000,200,-257.00,2.199
12146,0.000,200,-299.00,2.005
12238,0.000,200,-279.00,2.097
12330,0.000,200,-251.00,2.227
12421,0.000,200,-330.00,1.862
12513,0.000,200,-387.00,1.599
12604,0.000,200,-387.00,1.599
12696,0.000,200,-313.00,1.940
12787,0.000,200,-298.00,2.010
12880,0.000,200,-273.00,2.125
12971,0.000,200,-339.00,1.820
13063,0.000,200,-351.00,1.765
13154,0.000,200,-332.00,1.853
13246,0.000,200,-370.00,1.677
13337,0.000,200,-425.00,1.423
13429,0.000,200,-405.00,1.516
13521,0.000,200,-386.00,1.603
13613,0.000,200,-408.00,1.502
13704,0.000,200,-404.00,1.520
13796,0.000,200,-417.00,1.460
13887,0.000,200,-465.00,1.239
13979,0.000,200,-492.00,1.114
14070,0.000,200,-429.00,1.405
14163,0.000,200,-368.00,1.686
14254,0.000,200,-362.00,1.714
14346,0.000,200,-454.00,1.289
14437,0.000,200,-470.00,1.215
14529,0.000,200,-520.00,0.985
14620,0.000,200,-543.00,0.878
14713,0.000,200,-501.00,1.072
14804,0.000,200,-490.00,1.123
14896,0.000,200,-472.00,1.206
14987,0.000,200,-509.00,1.035
15079,0.000,200,-549.00,0.851
15170,0.000,200,-565.00,0.777
15262,0.000,200,-583.00,0.694
15354,0.000,200,-567.00,0.768
15446,0.000,200,-592.00,0.652