ms,pos,steps,strain,g
0,0.000,200,750.00,6.848
2,0.000,200,679.00,6.520
67,0.000,200,168.00,4.161
160,0.000,200,-2378.00,-7.594
251,0.000,200,-5736.00,-23.098
343,0.000,200,-8977.00,-38.061
434,0.000,200,-12241.00,-53.131
526,0.000,200,-15406.00,-67.744
617,0.000,200,-18575.00,-82.375
709,0.000,200,-21756.00,-97.061
801,0.000,200,-25183.00,-112.884
893,0.000,200,-28501.00,-128.203
984,0.000,200,-31698.00,-142.963
1076,0.000,200,-35017.00,-158.287
1167,0.000,200,-38261.00,-173.264
1259,0.000,200,-41505.00,-188.242
1350,0.000,200,-44846.00,-203.667
1443,0.000,200,-48363.00,-219.905
1534,0.000,200,-51791.00,-235.732
1626,0.000,200,-55115.00,-251.079
1717,0.000,200,-58409.00,-266.287
1808,0.000,200,-61607.00,-281.052
1900,0.000,200,-64904.00,-296.274
1991,0.000,200,-68314.00,-312.018
2084,0.000,200,-71911.00,-328.625
2175,0.000,200,-75409.00,-344.775
2267,0.000,200,-78900.00,-360.893
2358,0.000,200,-82367.00,-376.900
2450,0.000,200,-85652.00,-392.067
2541,0.000,200,-88999.00,-407.520
2634,0.000,200,-92370.00,-423.084
2725,0.000,200,-95968.00,-439.695
2817,0.000,200,-99478.00,-455.901
2908,0.000,200,-102942.00,-471.894
3000,0.000,200,-106330.00,-487.536
3091,0.000,200,-109461.00,-501.992
3182,0.000,200,-112590.00,-516.439
3275,0.000,200,-115864.00,-531.555
3366,0.000,200,-119298.00,-547.409
3458,0.000,200,-122561.00,-562.474
3549,0.000,200,-125782.00,-577.346
3641,0.000,200,-128725.00,-590.933
3732,0.000,200,-131548.00,-603.967
3824,0.000,200,-134359.00,-616.945
3916,0.000,200,-137161.00,-629.882
4008,0.000,200,-140095.00,-643.428
4099,0.000,200,-142816.00,-655.991
4190,0.000,200,-145495.00,-668.360
4282,0.000,200,-148041.00,-680.115
4373,0.000,200,-150449.00,-691.232
4465,0.000,200,-152857.00,-702.350
4557,0.000,200,-155370.00,-713.952
4649,0.000,200,-157929.00,-725.767
4740,0.000,200,-160333.00,-736.866
4832,0.000,200,-162640.00,-747.518
4923,0.000,200,-164853.00,-757.735
5015,0.000,200,-166935.00,-767.348
5106,0.000,200,-167441.00,-769.684
5199,0.000,200,-164930.00,-758.091
5290,0.000,200,-159963.00,-735.158
5382,0.000,200,-154839.00,-711.501
5473,0.000,200,-150107.00,-689.653
5564,0.000,200,-145899.00,-670.225
5656,0.000,200,-141709.00,-650.880
5747,0.000,200,-137719.00,-632.458
5840,0.000,200,-134091.00,-615.708
5931,0.000,200,-130539.00,-599.309
6023,0.000,200,-127093.00,-583.399
6114,0.000,200,-123539.00,-566.990
6206,0.000,200,-120045.00,-550.858
6297,0.000,200,-116388.00,-533.974
6390,0.000,200,-112868.00,-517.722
6481,0.000,200,-109593.00,-502.602
6572,0.000,200,-106396.00,-487.841
6664,0.000,200,-103143.00,-472.822
6755,0.000,200,-99681.00,-456.838
6847,0.000,200,-96336.00,-441.395
6938,0.000,200,-92784.00,-424.995
7031,0.000,200,-89417.00,-409.450
7122,0.000,200,-86274.00,-394.939
7214,0.000,200,-83117.00,-380.363
7305,0.000,200,-80007.00,-366.004
7396,0.000,200,-76674.00,-350.616
7488,0.000,200,-73416.00,-335.574
7579,0.000,200,-69968.00,-319.654
7672,0.000,200,-66703.00,-304.580
7763,0.000,200,-63581.00,-290.166
7855,0.000,200,-60507.00,-275.973
7946,0.000,200,-57496.00,-262.072
8038,0.000,200,-54261.00,-247.136
8129,0.000,200,-51141.00,-232.731
8220,0.000,200,-47824.00,-217.416
8313,0.000,200,-44599.00,-202.527
8404,0.000,200,-41647.00,-188.897
8496,0.000,200,-38756.00,-175.550
8587,0.000,200,-35876.00,-162.253
8679,0.000,200,-32751.00,-147.825
8770,0.000,200,-29724.00,-133.849
8862,0.000,200,-26567.00,-119.274
8954,0.000,200,-23456.00,-104.910
9045,0.000,200,-20431.00,-90.944
9137,0.000,200,-17553.00,-77.656
9228,0.000,200,-14696.00,-64.466
9320,0.000,200,-11697.00,-50.619
9411,0.000,200,-8897.00,-37.692
9504,0.000,200,-5879.00,-23.758
9595,0.000,200,-2820.00,-9.634
9687,0.000,200,78.00,3.746
9778,0.000,200,2826.00,16.433
9870,0.000,200,5311.00,27.906
9961,0.000,200,8068.00,40.635
10052,0.000,200,10629.00,52.459
10145,0.000,200,12822.00,62.584
10236,0.000,200,13490.00,65.668
10328,0.000,200,13261.00,64.611
10419,0.000,200,13043.00,63.604