ms,pos,steps,strain,g
0,0.000,200,9.00,3.427
47,0.000,200,-394.00,1.566
138,0.000,200,-4416.00,-17.003
230,0.000,200,-12246.00,-53.154
323,0.000,200,-20853.00,-92.892
414,0.000,200,-29365.00,-132.192
506,0.000,200,-38185.00,-172.913
597,0.000,200,-48049.00,-218.455
689,0.000,200,-56955.00,-259.574
780,0.000,200,-59175.00,-269.824
873,0.000,200,-59011.00,-269.066
964,0.000,200,-65054.00,-296.967
1056,0.000,200,-71294.00,-325.777
1147,0.000,200,-80791.00,-369.624
1239,0.000,200,-90968.00,-416.611
1330,0.000,200,-101594.00,-465.671
1422,0.000,200,-112673.00,-516.822
1515,0.000,200,-122635.00,-562.816
1606,0.000,200,-133081.00,-611.045
1698,0.000,200,-142610.00,-655.040
1789,0.000,200,-151656.00,-696.805
1881,0.000,200,-160348.00,-736.936
1972,0.000,200,-169265.00,-778.105
2064,0.000,200,-178475.00,-820.627
2156,0.000,200,-186554.00,-857.928
2248,0.000,200,-194843.00,-896.198
2339,0.000,200,-202721.00,-932.570
2431,0.000,200,-210519.00,-968.573
2522,0.000,200,-218315.00,-1004.567
2614,0.000,200,-226278.00,-1041.332
2706,0.000,200,-234333.00,-1078.522
2798,0.000,200,-241366.00,-1110.993
2889,0.000,200,-248176.00,-1142.435
2981,0.000,200,-254185.00,-1170.178
3072,0.000,200,-259649.00,-1195.405
3164,0.000,200,-264846.00,-1219.399
3255,0.000,200,-269892.00,-1242.697
3348,0.000,200,-274995.00,-1266.257
3439,0.000,200,-279144.00,-1285.413
3531,0.000,200,-283386.00,-1304.998
3622,0.000,200,-287062.00,-1321.970
3714,0.000,200,-290463.00,-1337.672
3806,0.000,200,-293783.00,-1353.000
3897,0.000,200,-296931.00,-1367.535
3990,0.000,200,-300155.00,-1382.420
4081,0.000,200,-302334.00,-1392.480
4173,0.000,200,-304450.00,-1402.250
4264,0.000,200,-305845.00,-1408.690
4356,0.000,200,-307003.00,-1414.037
4447,0.000,200,-308142.00,-1419.295
4539,0.000,200,-309231.00,-1424.323
4631,0.000,200,-310445.00,-1429.928
4723,0.000,200,-310680.00,-1431.013
4814,0.000,200,-311183.00,-1433.336
4906,0.000,200,-311404.00,-1434.356
4997,0.000,200,-311637.00,-1435.432
5089,0.000,200,-310105.00,-1428.359
5181,0.000,200,-304029.00,-1400.306
5273,0.000,200,-293614.00,-1352.220
5364,0.000,200,-282478.00,-1300.806
5456,0.000,200,-272873.00,-1256.460
5547,0.000,200,-263940.00,-1215.216
5639,0.000,200,-255808.00,-1177.671
5730,0.000,200,-247569.00,-1139.632
5823,0.000,200,-240059.00,-1104.959
5914,0.000,200,-232834.00,-1071.601
6006,0.000,200,-225598.00,-1038.193
6098,0.000,200,-218358.00,-1004.766
6189,0.000,200,-210778.00,-969.769
6280,0.000,200,-203387.00,-935.645
6372,0.000,200,-195651.00,-899.928
6465,0.000,200,-188378.00,-866.349
6556,0.000,200,-181285.00,-833.601
6648,0.000,200,-174073.00,-800.304
6739,0.000,200,-166719.00,-766.350
6831,0.000,200,-158937.00,-730.421
6922,0.000,200,-151275.00,-695.046
7014,0.000,200,-143182.00,-657.681
7106,0.000,200,-135564.00,-622.509
7198,0.000,200,-128136.00,-588.214
7289,0.000,200,-120667.00,-553.730
7381,0.000,200,-113138.00,-518.969
7472,0.000,200,-105276.00,-482.670
7564,0.000,200,-97505.00,-446.792
7656,0.000,200,-89199.00,-408.443
7748,0.000,200,-81222.00,-371.614
7839,0.000,200,-73630.00,-336.562
7931,0.000,200,-66082.00,-301.713
8022,0.000,200,-58594.00,-267.141
8114,0.000,200,-50956.00,-231.877
8205,0.000,200,-44172.00,-200.555
8298,0.000,200,-37547.00,-169.968
8389,0.000,200,-31429.00,-141.721
8481,0.000,200,-26398.00,-118.493
8572,0.000,200,-23663.00,-105.866
8664,0.000,200,-21462.00,-95.704
8755,0.000,200,-17466.00,-77.255
8847,0.000,200,-15521.00,-68.275
8939,0.000,200,-12753.00,-55.495
9031,0.000,200,-8026.00,-33.670
9122,0.000,200,-4396.00,-16.911
9214,0.000,200,-2702.00,-9.090
9305,0.000,200,-1704.00,-4.482
9397,0.000,200,-928.00,-0.899
9488,0.000,200,-553.00,0.832
9581,0.000,200,-210.00,2.416
9672,0.000,200,-53.00,3.141
9764,0.000,200,-41.00,3.196
9855,0.000,200,-39.00,3.205
9947,0.000,200,-43.00,3.187
10038,0.000,200,-51.00,3.150
10131,0.000,200,0.00,3.385
10222,0.000,200,13.00,3.445
10314,0.000,200,-13.00,3.325
10406,0.000,200,-35.00,3.224
10497,0.000,200,-27.00,3.261
10589,0.000,200,-76.00,3.035
10680,0.000,200,-74.00,3.044
10773,0.000,200,-51.00,3.150
10864,0.000,200,-49.00,3.159
10956,0.000,200,-80.00,3.016
11047,0.000,200,-44.00,3.182
11139,0.000,200,-76.00,3.035
11230,0.000,200,-74.00,3.044
11322,0.000,200,-66.00,3.081
11414,0.000,200,-145.00,2.716
11506,0.000,200,-182.00,2.545
11597,0.000,200,-159.00,2.651
11689,0.000,200,-204.00,2.444
11780,0.000,200,-212.00,2.407
11872,0.000,200,-192.00,2.499
11963,0.000,200,-174.00,2.582
12056,0.000,200,-173.00,2.587
12147,0.000,200,-132.00,2.776
12239,0.000,200,-150.00,2.693
12330,0.000,200,-116.00,2.850
12422,0.000,200,-78.00,3.025
12513,0.000,200,-96.00,2.942
12606,0.000,200,-97.00,2.938
12697,0.000,200,-100.00,2.924
12789,0.000,200,-108.00,2.887
12880,0.000,200,-120.00,2.831
12972,0.000,200,-128.00,2.794
13064,0.000,200,-125.00,2.808
13155,0.000,200,-127.00,2.799
13248,0.000,200,-114.00,2.859