ms,pos,steps,strain,g
0,0.000,200,-13646.00,-59.618
92,0.000,200,-29936.00,-134.828
184,0.000,200,-45252.00,-205.542
275,0.000,200,-56252.00,-256.328
368,0.000,200,-68781.00,-314.174
459,0.000,200,-84089.00,-384.851
551,0.000,200,-101103.00,-463.404
642,0.000,200,-120192.00,-551.537
734,0.000,200,-139451.00,-640.455
825,0.000,200,-158585.00,-728.796
918,0.000,200,-178380.00,-820.189
1009,0.000,200,-198812.00,-914.523
1101,0.000,200,-218696.00,-1006.326
1192,0.000,200,-238163.00,-1096.205
1284,0.000,200,-258239.00,-1188.895
1375,0.000,200,-277512.00,-1277.878
1467,0.000,200,-296516.00,-1365.619
1559,0.000,200,-316085.00,-1455.968
1651,0.000,200,-336040.00,-1548.100
1742,0.000,200,-355416.00,-1637.558
1834,0.000,200,-373518.00,-1721.134
1925,0.000,200,-391948.00,-1806.225
2017,0.000,200,-408385.00,-1882.114
2108,0.000,200,-424056.00,-1954.466
2201,0.000,200,-440005.00,-2028.102
2292,0.000,200,-456645.00,-2104.929
2384,0.000,200,-472908.00,-2180.014
2475,0.000,200,-487758.00,-2248.576
2567,0.000,200,-503149.00,-2319.636
2658,0.000,200,-517671.00,-2386.684
2750,0.000,200,-532201.00,-2453.768
2842,0.000,200,-547354.00,-2523.729
2934,0.000,200,-562799.00,-2595.038
3025,0.000,200,-577738.00,-2664.011
3117,0.000,200,-591201.00,-2726.169
3208,0.000,200,-605274.00,-2791.144
3300,0.000,200,-618727.00,-2853.256
3392,0.000,200,-632145.00,-2915.206
3484,0.000,200,-646112.00,-2979.691
3575,0.000,200,-660003.00,-3043.825
3666,0.000,200,-673578.00,-3106.501
3758,0.000,200,-684925.00,-3158.889
3849,0.000,200,-697007.00,-3214.672
3941,0.000,200,-708307.00,-3266.843
4033,0.000,200,-718894.00,-3315.723
4125,0.000,200,-730036.00,-3367.165
4216,0.000,200,-740968.00,-3417.638
4308,0.000,200,-751685.00,-3467.118
4399,0.000,200,-759693.00,-3504.091
4491,0.000,200,-768429.00,-3544.425
4582,0.000,200,-776568.00,-3582.002
4675,0.000,200,-784847.00,-3620.226
4766,0.000,200,-794146.00,-3663.159
4858,0.000,200,-802641.00,-3702.380
4949,0.000,200,-803518.00,-3706.429
5041,0.000,200,-787666.00,-3633.241
5132,0.000,200,-760417.00,-3507.433
5224,0.000,200,-731281.00,-3372.913
5316,0.000,200,-703843.00,-3246.233
5408,0.000,200,-677767.00,-3125.841
5499,0.000,200,-651935.00,-3006.576
5591,0.000,200,-626848.00,-2890.750
5682,0.000,200,-601971.00,-2775.894
5774,0.000,200,-576259.00,-2657.182
5865,0.000,200,-551669.00,-2543.651
5958,0.000,200,-528289.00,-2435.707
6049,0.000,200,-505783.00,-2331.797
6141,0.000,200,-483758.00,-2230.108
6232,0.000,200,-462394.00,-2131.472
6324,0.000,200,-441440.00,-2034.728
6415,0.000,200,-419728.00,-1934.484
6508,0.000,200,-398801.00,-1837.865
6599,0.000,200,-378658.00,-1744.865
6691,0.000,200,-358947.00,-1653.860
6782,0.000,200,-339181.00,-1562.601
6874,0.000,200,-317944.00,-1464.551
6965,0.000,200,-295924.00,-1362.885
7057,0.000,200,-272753.00,-1255.906
7149,0.000,200,-250629.00,-1153.760
7241,0.000,200,-230045.00,-1058.724
7332,0.000,200,-210099.00,-966.634
7423,0.000,200,-190685.00,-877.001
7515,0.000,200,-171039.00,-786.296
7606,0.000,200,-152328.00,-699.908
7698,0.000,200,-132743.00,-609.484
7790,0.000,200,-114314.00,-524.398
7882,0.000,200,-97199.00,-445.379
7973,0.000,200,-80850.00,-369.896
8065,0.000,200,-65059.00,-296.990
8156,0.000,200,-48984.00,-222.772
8248,0.000,200,-34016.00,-153.665
8339,0.000,200,-18693.00,-82.920
8432,0.000,200,-5356.00,-21.343
8523,0.000,200,4619.00,24.711
8615,0.000,200,11740.00,57.589
8706,0.000,200,18387.00,88.278
8798,0.000,200,21484.00,102.576
8889,0.000,200,21162.00,101.090
8982,0.000,200,23119.00,110.125
9073,0.000,200,29371.00,138.990
9165,0.000,200,32477.00,153.331
9256,0.000,200,32993.00,155.713
9348,0.000,200,33137.00,156.378
9439,0.000,200,33114.00,156.272
9531,0.000,200,33101.00,156.212
9623,0.000,200,33052.00,155.985
9715,0.000,200,33069.00,156.064
9806,0.000,200,33097.00,156.193
9898,0.000,200,33032.00,155.893
9989,0.000,200,32959.00,155.556
10080,0.000,200,32962.00,155.570
10172,0.000,200,32936.00,155.450
10264,0.000,200,32914.00,155.348
10356,0.000,200,32851.00,155.057
10447,0.000,200,32805.00,154.845
10539,0.000,200,32787.00,154.762
10630,0.000,200,32756.00,154.619
10722,0.000,200,32801.00,154.826
10813,0.000,200,32798.00,154.813
10906,0.000,200,32686.00,154.296
10997,0.000,200,32648.00,154.120
11089,0.000,200,32581.00,153.811
11180,0.000,200,32580.00,153.806
11272,0.000,200,32566.00,153.741
11363,0.000,200,32465.00,153.275
11456,0.000,200,32476.00,153.326
11547,0.000,200,32501.00,153.441
11639,0.000,200,32498.00,153.428
11730,0.000,200,32406.00,153.003
11822,0.000,200,32365.00,152.813
11913,0.000,200,32348.00,152.735
12005,0.000,200,32366.00,152.818
12097,0.000,200,32297.00,152.500
12189,0.000,200,32215.00,152.121
12280,0.000,200,32233.00,152.204
12372,0.000,200,32210.00,152.098
12463,0.000,200,32158.00,151.858