ms,pos,steps,strain,g
0,0.000,200,13.00,3.445
2,0.000,200,47.00,3.602
10,0.000,200,57.00,3.649
101,0.000,200,-209.00,2.420
193,0.000,200,-950.00,-1.001
285,0.000,200,-1946.00,-5.599
377,0.000,200,-2819.00,-9.630
469,0.000,200,-3821.00,-14.256
560,0.000,200,-4803.00,-18.790
652,0.000,200,-5552.00,-22.248
743,0.000,200,-6371.00,-26.029
835,0.000,200,-7247.00,-30.074
927,0.000,200,-8068.00,-33.864
1019,0.000,200,-8871.00,-37.572
1110,0.000,200,-9631.00,-41.081
1202,0.000,200,-10409.00,-44.673
1294,0.000,200,-11208.00,-48.362
1385,0.000,200,-11982.00,-51.935
1477,0.000,200,-12832.00,-55.860
1569,0.000,200,-13796.00,-60.310
1661,0.000,200,-14511.00,-63.611
1752,0.000,200,-15187.00,-66.732
1844,0.000,200,-15976.00,-70.375
1935,0.000,200,-16748.00,-73.940
2027,0.000,200,-17341.00,-76.677
2119,0.000,200,-17999.00,-79.715
2211,0.000,200,-18742.00,-83.146
2302,0.000,200,-19429.00,-86.318
2394,0.000,200,-20224.00,-89.988
2486,0.000,200,-21001.00,-93.576
2577,0.000,200,-21895.00,-97.703
2669,0.000,200,-22798.00,-101.872
2761,0.000,200,-23466.00,-104.956
2853,0.000,200,-24240.00,-108.530
2944,0.000,200,-25203.00,-112.976
3036,0.000,200,-25943.00,-116.393
3127,0.000,200,-26694.00,-119.860
3219,0.000,200,-27593.00,-124.011
3310,0.000,200,-28366.00,-127.579
3403,0.000,200,-29228.00,-131.559
3495,0.000,200,-30153.00,-135.830
3586,0.000,200,-30899.00,-139.274
3678,0.000,200,-31800.00,-143.434
3769,0.000,200,-32601.00,-147.132
3861,0.000,200,-33319.00,-150.447
3952,0.000,200,-34151.00,-154.289
4045,0.000,200,-35017.00,-158.287
4136,0.000,200,-35698.00,-161.431
4228,0.000,200,-36461.00,-164.954
4319,0.000,200,-37262.00,-168.652
4411,0.000,200,-37939.00,-171.778
4503,0.000,200,-38742.00,-175.485
4595,0.000,200,-39550.00,-179.216
4687,0.000,200,-40317.00,-182.757
4778,0.000,200,-41232.00,-186.981
4870,0.000,200,-41913.00,-190.125
4961,0.000,200,-42532.00,-192.983
5053,0.000,200,-43422.00,-197.092
5144,0.000,200,-44143.00,-200.421
5237,0.000,200,-44666.00,-202.836
5328,0.000,200,-45285.00,-205.694
5420,0.000,200,-45914.00,-208.598
5511,0.000,200,-46501.00,-211.308
5603,0.000,200,-47006.00,-213.640
5695,0.000,200,-47179.00,-214.438
5786,0.000,200,-47424.00,-215.570
5879,0.000,200,-47949.00,-217.993
5970,0.000,200,-48442.00,-220.270
6062,0.000,200,-49179.00,-223.672
6153,0.000,200,-49982.00,-227.380
6245,0.000,200,-50554.00,-230.021
6336,0.000,200,-51155.00,-232.795
6429,0.000,200,-51862.00,-236.060
6520,0.000,200,-52549.00,-239.232
6612,0.000,200,-53232.00,-242.385
6704,0.000,200,-53829.00,-245.141
6795,0.000,200,-54481.00,-248.151
6887,0.000,200,-55259.00,-251.743
6978,0.000,200,-55868.00,-254.555
7071,0.000,200,-56422.00,-257.113
7162,0.000,200,-57078.00,-260.142
7254,0.000,200,-57669.00,-262.870
7345,0.000,200,-58034.00,-264.556
7437,0.000,200,-58461.00,-266.527
7528,0.000,200,-58883.00,-268.475
7620,0.000,200,-59325.00,-270.516
7713,0.000,200,-59913.00,-273.231
7804,0.000,200,-60573.00,-276.278
7896,0.000,200,-61238.00,-279.348
7987,0.000,200,-61972.00,-282.737
8079,0.000,200,-62485.00,-285.106
8170,0.000,200,-63059.00,-287.756
8263,0.000,200,-63759.00,-290.988
8354,0.000,200,-64181.00,-292.936
8446,0.000,200,-63935.00,-291.800
8537,0.000,200,-62658.00,-285.904
8629,0.000,200,-60712.00,-276.920
8720,0.000,200,-58494.00,-266.679
8812,0.000,200,-56713.00,-258.457
8905,0.000,200,-55099.00,-251.005
8996,0.000,200,-53377.00,-243.054
9088,0.000,200,-51863.00,-236.064
9179,0.000,200,-50446.00,-229.522
9271,0.000,200,-49084.00,-223.234
9362,0.000,200,-47950.00,-217.998
9454,0.000,200,-46734.00,-212.384
9546,0.000,200,-45458.00,-206.493
9638,0.000,200,-44454.00,-201.857
9729,0.000,200,-43260.00,-196.345
9821,0.000,200,-41982.00,-190.444
9913,0.000,200,-41016.00,-185.984
10004,0.000,200,-39897.00,-180.818
10096,0.000,200,-38682.00,-175.208
10188,0.000,200,-37784.00,-171.062
10280,0.000,200,-36861.00,-166.801
10371,0.000,200,-35974.00,-162.705
10463,0.000,200,-35191.00,-159.090
10554,0.000,200,-34461.00,-155.720
10646,0.000,200,-33840.00,-152.853
10738,0.000,200,-33151.00,-149.672
10830,0.000,200,-32107.00,-144.852
10922,0.000,200,-31221.00,-140.761
11013,0.000,200,-30444.00,-137.173
11105,0.000,200,-29473.00,-132.690
11196,0.000,200,-28351.00,-127.510
11288,0.000,200,-27478.00,-123.480
11380,0.000,200,-26555.00,-119.218
11472,0.000,200,-25715.00,-115.340
11563,0.000,200,-24875.00,-111.462
11655,0.000,200,-23927.00,-107.085
11746,0.000,200,-23154.00,-103.516
11838,0.000,200,-22343.00,-99.771
11929,0.000,200,-21388.00,-95.362
12022,0.000,200,-20644.00,-91.927
12114,0.000,200,-19988.00,-88.899
12205,0.000,200,-19334.00,-85.879
12297,0.000,200,-18943.00,-84.074
12388,0.000,200,-18455.00,-81.821
12480,0.000,200,-17749.00,-78.561
12572,0.000,200,-17022.00,-75.205
12664,0.000,200,-16190.00,-71.363
12755,0.000,200,-15429.00,-67.850
12847,0.000,200,-14782.00,-64.863
12938,0.000,200,-13949.00,-61.017
13030,0.000,200,-13081.00,-57.009
13122,0.000,200,-12433.00,-54.017
13214,0.000,200,-11701.00,-50.638
13306,0.000,200,-10910.00,-46.986
13397,0.000,200,-10184.00,-43.634
13489,0.000,200,-9495.00,-40.453
13580,0.000,200,-8835.00,-37.406
13672,0.000,200,-8277.00,-34.829
13763,0.000,200,-7646.00,-31.916
13856,0.000,200,-7069.00,-29.252
13947,0.000,200,-6501.00,-26.630
14039,0.000,200,-5795.00,-23.370
14130,0.000,200,-5208.00,-20.660
14222,0.000,200,-4730.00,-18.453
14314,0.000,200,-4063.00,-15.373
14405,0.000,200,-3440.00,-12.497
14498,0.000,200,-2805.00,-9.565
14589,0.000,200,-2246.00,-6.984
14681,0.000,200,-1830.00,-5.064
14772,0.000,200,-1297.00,-2.603
14864,0.000,200,-770.00,-0.170
14955,0.000,200,-356.00,1.742
15048,0.000,200,136.00,4.013
15139,0.000,200,751.00,6.853
15231,0.000,200,1129.00,8.598
15322,0.000,200,1499.00,10.306
15414,0.000,200,2018.00,12.702
15506,0.000,200,2452.00,14.706
15597,0.000,200,2678.00,15.750
15690,0.000,200,2926.00,16.895
15781,0.000,200,3019.00,17.324
15873,0.000,200,3164.00,17.993
15964,0.000,200,3214.00,18.224
16056,0.000,200,3202.00,18.169
16147,0.000,200,3203.00,18.174
16239,0.000,200,3167.00,18.007
16331,0.000,200,3200.00,18.160
16423,0.000,200,3248.00,18.381
16515,0.000,200,3278.00,18.520
16606,0.000,200,3286.00,18.557
16698,0.000,200,3429.00,19.217
16789,0.000,200,3338.00,18.797
16882,0.000,200,3207.00,18.192
16973,0.000,200,3260.00,18.437
17065,0.000,200,3260.00,18.437
17156,0.000,200,3221.00,18.257
17248,0.000,200,3240.00,18.344
17339,0.000,200,3248.00,18.381
17431,0.000,200,3213.00,18.220
17524,0.000,200,3208.00,18.197
17615,0.000,200,3233.00,18.312
17707,0.000,200,3194.00,18.132
17798,0.000,200,3173.00,18.035
17890,0.000,200,3200.00,18.160
17981,0.000,200,3242.00,18.354
18073,0.000,200,3223.00,18.266
18165,0.000,200,3149.00,17.924
18257,0.000,200,3152.00,17.938
18349,0.000,200,3198.00,18.150
18440,0.000,200,3190.00,18.114
18532,0.000,200,3191.00,18.118
18623,0.000,200,3161.00,17.980
18716,0.000,200,3195.00,18.137
18807,0.000,200,3220.00,18.252
18899,0.000,200,3207.00,18.192
18990,0.000,200,3195.00,18.137
19082,0.000,200,3179.00,18.063
19173,0.000,200,3167.00,18.007
19265,0.000,200,3229.00,18.294
19358,0.000,200,3263.00,18.451
19449,0.000,200,3269.00,18.478
19541,0.000,200,3254.00,18.409
19632,0.000,200,3241.00,18.349
19724,0.000,200,3172.00,18.030
19815,0.000,200,3164.00,17.993
19907,0.000,200,3179.00,18.063
19999,0.000,200,3220.00,18.252
20091,0.000,200,3234.00,18.317
20182,0.000,200,3211.00,18.210